# NICMOS camera 3 filter f110w
# wavelength throughput
#     A
        5995.   5.600000E-6 
        6000.  -6.600000E-6 
        6005.   5.800000E-6 
        6010.  -1.150000E-5 
        6015.  -2.280000E-5 
        6020.  -1.720000E-5 
        6025.  -1.020000E-5 
        6030.  -3.400000E-6 
        6035.  -2.410000E-5 
        6040.  -2.020000E-5 
        6045.  -1.960000E-5 
        6050.  -2.200000E-5 
        6055.  -7.600000E-6 
        6060.  -1.040000E-5 
        6065.  -1.110000E-5 
        6070.  -1.520000E-5 
        6075.  -1.590000E-5 
        6080.  -1.870000E-5 
        6085.  -7.000000E-6 
        6090.  -1.000000E-5 
        6095.  -2.690000E-5 
        6100.  -1.870000E-5 
        6105.  -1.230000E-5 
        6110.  -2.130000E-5 
        6115.  -1.340000E-5 
        6120.  -4.200000E-6 
        6125.  -1.160000E-5 
        6130.  -6.900000E-6 
        6135.  -5.400000E-6 
        6140.  -2.300000E-6 
        6145.  -1.120000E-5 
        6150.  -1.120000E-5 
        6155.  -5.200000E-6 
        6160.  -6.800000E-6 
        6165.  -2.010000E-5 
        6170.  -1.490000E-5 
        6175.  -2.030000E-5 
        6180.  -1.000000E-6 
        6185.  -5.500000E-6 
        6190.  -9.599999E-6 
        6195.  -2.160000E-5 
        6200.   4.300000E-6 
        6205.   4.000000E-6 
        6210.  -1.649000E-9 
        6215.  -1.750000E-5 
        6220.   3.800000E-6 
        6225.  -1.710000E-5 
        6230.   6.000000E-7 
        6235.  -1.300000E-5 
        6240.   3.800000E-6 
        6245.  -1.310000E-5 
        6250.  -1.180000E-5 
        6255.  -1.200000E-5 
        6260.  -2.480000E-5 
        6265.  -2.120000E-5 
        6270.  -6.700000E-6 
        6275.  -1.280000E-5 
        6280.   3.000000E-6 
        6285.  -1.200000E-5 
        6290.  -2.080000E-5 
        6295.  -7.300000E-6 
        6300.  -1.810000E-5 
        6305.  -1.990000E-5 
        6310.  -6.100000E-6 
        6315.  -1.230000E-5 
        6320.  -9.300000E-6 
        6325.  -1.710000E-5 
        6330.  -2.640000E-5 
        6335.  -2.180000E-5 
        6340.  -2.800000E-5 
        6345.  -9.999999E-8 
        6350.  -3.030000E-5 
        6355.  -1.330000E-5 
        6360.   1.400000E-6 
        6365.   4.900000E-6 
        6370.  -3.560000E-5 
        6375.  -2.700000E-6 
        6380.  -7.600000E-6 
        6385.  -2.870000E-5 
        6390.   7.200000E-6 
        6395.   2.400000E-6 
        6400.  -8.800000E-6 
        6405.  -4.010000E-5 
        6410.  -3.100000E-5 
        6415.   2.700000E-6 
        6420.   1.100000E-6 
        6425.  -3.500000E-6 
        6430.  -3.000000E-7 
        6435.   2.900000E-6 
        6440.  -1.870000E-5 
        6445.  -6.200000E-6 
        6450.  -2.290000E-5 
        6455.  -8.999999E-6 
        6460.  -1.640000E-5 
        6465.  -2.700000E-6 
        6470.   5.000000E-6 
        6475.  -8.500000E-6 
        6480.  -3.070000E-5 
        6485.  -1.560000E-5 
        6490.  -2.200000E-6 
        6495.   5.900000E-6 
        6500.  -2.700000E-5 
        6505.  -2.340000E-5 
        6510.  -9.200000E-6 
        6515.  -2.510000E-5 
        6520.  -8.999999E-6 
        6525.   1.850000E-5 
        6530.  -4.600000E-6 
        6535.  -4.500000E-6 
        6540.  -4.500000E-6 
        6545.  -1.400000E-6 
        6550.   8.500000E-6 
        6555.  -2.030000E-5 
        6560.  -2.000000E-7 
        6565.  -3.180000E-5 
        6570.  -2.610000E-5 
        6575.  -1.320000E-5 
        6580.  -4.070200E-9 
        6585.  -2.200000E-5 
        6590.  -1.740000E-5 
        6595.  -4.000000E-7 
        6600.   5.500000E-6 
        6605.  -7.800000E-6 
        6610.  -8.800000E-6 
        6615.  -3.600000E-6 
        6620.  -3.700000E-6 
        6625.   6.000000E-6 
        6630.  -1.000000E-5 
        6635.   9.599999E-6 
        6640.  -1.160000E-5 
        6645.  -1.010000E-5 
        6650.   2.600000E-6 
        6655.  -6.300000E-6 
        6660.  -8.000000E-6 
        6665.  -1.580000E-5 
        6670.  -1.060000E-5 
        6675.  -3.450000E-5 
        6680.  -8.900000E-6 
        6685.  -1.800000E-6 
        6690.  -1.390000E-5 
        6695.   6.800000E-6 
        6700.  -1.060000E-5 
        6705.   2.900000E-6 
        6710.   8.600000E-6 
        6715. -6.651400E-10 
        6720.  -2.580000E-5 
        6725.  -8.000000E-7 
        6730.  -1.930000E-5 
        6735.   5.700000E-6 
        6740.  -1.790000E-5 
        6745.  -5.900000E-6 
        6750.   8.999999E-6 
        6755.  -1.930000E-5 
        6760.  -4.400000E-6 
        6765.   1.440000E-5 
        6770.  -2.520000E-5 
        6775.  -1.650000E-5 
        6780.  -7.000000E-6 
        6785.  -4.300000E-6 
        6790.  -1.790000E-5 
        6795.  -8.900000E-6 
        6800.  -2.030000E-5 
        6805.  -2.550000E-5 
        6810.  -5.900000E-6 
        6815.  -1.050000E-5 
        6820.  -5.000000E-7 
        6825.  -1.660000E-5 
        6830.  -1.010000E-5 
        6835.  -1.010000E-5 
        6840.  -1.320000E-5 
        6845.  -1.500000E-6 
        6850.   2.300000E-6 
        6855.  -1.160000E-5 
        6860.  -2.420000E-5 
        6865.  -4.400000E-6 
        6870.   4.100000E-6 
        6875.  -8.200001E-6 
        6880.  -2.520000E-5 
        6885.  -1.660000E-5 
        6890.  -9.200000E-6 
        6895.  -1.180000E-5 
        6900.  -2.600000E-5 
        6905.  -2.300000E-6 
        6910.  -1.380000E-5 
        6915.  -2.160000E-5 
        6920.  -1.320000E-5 
        6925.  -1.180000E-5 
        6930.  -1.050000E-5 
        6935.   7.000000E-7 
        6940.  -1.340000E-5 
        6945.  -4.300000E-6 
        6950.   1.641500E-8 
        6955.  -1.830000E-5 
        6960.  -2.020000E-5 
        6965.  -4.600000E-6 
        6970.  -1.500000E-5 
        6975.  -2.800000E-6 
        6980.  -8.800000E-6 
        6985.  -2.550000E-5 
        6990.  -2.010000E-5 
        6995.  -9.900000E-6 
        7000.  -2.100000E-5 
        7005.   3.300000E-6 
        7010.  -8.500000E-6 
        7015.  -6.200000E-6 
        7020.   1.000000E-6 
        7025.  -8.300000E-6 
        7030.  -3.100000E-6 
        7035.  -3.100000E-6 
        7040.   5.000000E-6 
        7045.  -3.810000E-5 
        7050.  -1.070000E-5 
        7055.  -1.400000E-5 
        7060.  -3.180000E-5 
        7065.  -2.600000E-5 
        7070.  -4.200000E-6 
        7075.  -1.330000E-5 
        7080.  -4.600000E-6 
        7085.  -1.510000E-5 
        7090.  -9.400000E-6 
        7095.  -1.430000E-5 
        7100.  -1.000000E-5 
        7105.  -1.490000E-5 
        7110.  -8.999999E-6 
        7115.  -2.180000E-5 
        7120.  -1.610000E-5 
        7125.  -1.810000E-5 
        7130.  -1.550000E-5 
        7135.  -6.000000E-6 
        7140.   8.300000E-6 
        7145.   9.256900E-9 
        7150.   8.100000E-6 
        7155.  -2.900000E-6 
        7160.  -1.170000E-5 
        7165.   5.900000E-6 
        7170.  -1.690000E-5 
        7175.  -8.200001E-6 
        7180.   1.070000E-5 
        7185.  -1.490000E-5 
        7190.  -2.020000E-5 
        7195.  -9.200000E-6 
        7200.   1.200000E-6 
        7205.  -1.180000E-5 
        7210.  -3.000000E-6 
        7215.   4.500000E-6 
        7220.  -1.290000E-5 
        7225.   2.357300E-8 
        7230.  -1.000000E-6 
        7235.  -6.200000E-6 
        7240.   4.800000E-6 
        7245.  -2.200000E-5 
        7250.  -1.070000E-5 
        7255.  -6.400000E-6 
        7260.  -1.270000E-5 
        7265.  -1.980000E-5 
        7270.  -8.600000E-6 
        7275.  -1.400000E-5 
        7280.  -1.250000E-5 
        7285.  -2.790000E-5 
        7290.  -2.100000E-5 
        7295.  -1.630000E-5 
        7300.  -6.400000E-6 
        7305.  -1.810000E-5 
        7310.  -1.130000E-5 
        7315.  -1.530000E-5 
        7320.  -2.600000E-6 
        7325.   1.600000E-6 
        7330.   4.600000E-6 
        7335.  -2.800000E-5 
        7340.  -1.500000E-5 
        7345.  -6.300000E-6 
        7350.   8.500000E-6 
        7355.   6.100000E-6 
        7360.   3.700000E-6 
        7365.  -2.260000E-5 
        7370.  -2.700000E-6 
        7375.  -1.860000E-5 
        7380.  -1.720000E-5 
        7385.  -7.500000E-6 
        7390.  -7.700000E-6 
        7395.  -1.240000E-5 
        7400.  -6.600000E-6 
        7405.  -1.140000E-5 
        7410.  -1.010000E-5 
        7415.  -2.480000E-5 
        7420.   3.500000E-6 
        7425.  -1.390000E-5 
        7430.  -8.100000E-6 
        7435.   2.035200E-8 
        7440.   4.100000E-6 
        7445.  -7.500000E-6 
        7450.  -8.200001E-6 
        7455.   3.800000E-6 
        7460.   1.450000E-5 
        7465.  -2.020000E-5 
        7470.  -6.300000E-6 
        7475.  -1.110000E-5 
        7480.  -1.770000E-5 
        7485.  -9.100000E-6 
        7490.   8.600000E-6 
        7495.  -2.450000E-5 
        7500.  -8.200001E-6 
        7505.  -1.500000E-6 
        7510.  -1.940000E-5 
        7515.  -3.100000E-6 
        7520.  -4.350000E-5 
        7525.  -1.910000E-5 
        7530.   4.700000E-6 
        7535.  -1.510000E-5 
        7540.  -9.400000E-6 
        7545.   1.000000E-6 
        7550.   7.000000E-6 
        7555.   5.300000E-6 
        7560.   2.480000E-5 
        7565.   5.000000E-7 
        7570.   3.800000E-5 
        7575.   2.220000E-5 
        7580.   4.170000E-5 
        7585.   6.960000E-5 
        7590.   7.610000E-5 
        7595.   1.342000E-4 
        7600.   1.779000E-4 
        7605.   2.511000E-4 
        7610.   3.153000E-4 
        7615.   4.256000E-4 
        7620.   5.534000E-4 
        7625.   6.834000E-4 
        7630.   8.810000E-4 
        7635.     0.0010573 
        7640.     0.0012592 
        7645.     0.0014717 
        7650.      0.001689 
        7655.     0.0018875 
        7660.     0.0020791 
        7665.     0.0022541 
        7670.     0.0024533 
        7675.     0.0025903 
        7680.     0.0027354 
        7685.     0.0028622 
        7690.     0.0029595 
        7695.     0.0030851 
        7700.     0.0031276 
        7705.     0.0032358 
        7710.     0.0033004 
        7715.     0.0033819 
        7720.     0.0035051 
        7725.     0.0036194 
        7730.     0.0037461 
        7735.     0.0039061 
        7740.     0.0040999 
        7745.     0.0043334 
        7750.     0.0045946 
        7755.     0.0048448 
        7760.     0.0051709 
        7765.     0.0055244 
        7770.     0.0059431 
        7775.     0.0063688 
        7780.     0.0068629 
        7785.     0.0074303 
        7790.   0.008072999 
        7795.     0.0088309 
        7800.     0.0096753 
        7805.     0.0106119 
        7810.     0.0117556 
        7815.     0.0130618 
        7820.     0.0145214 
        7825.     0.0162457 
        7830.     0.0182031 
        7835.     0.0203892 
        7840.     0.0229777 
        7845.     0.0257578 
        7850.      0.029026 
        7855.     0.0327367 
        7860.     0.0366816 
        7865.     0.0412281 
        7870.     0.0460965 
        7875.      0.051185 
        7880.     0.0567299 
        7885.     0.0623052 
        7890.     0.0680274 
        7895.     0.0738834 
        7900.     0.0795457 
        7905.     0.0853029 
        7910.     0.0908381 
        7915.     0.0962636 
        7920.     0.1019218 
        7925.     0.1072139 
        7930.     0.1126857 
        7935.     0.1183724 
        7940.      0.124357 
        7945.     0.1306299 
        7950.     0.1374536 
        7955.     0.1449664 
        7960.     0.1535709 
        7965.     0.1630392 
        7970.     0.1738086 
        7975.     0.1861829 
        7980.     0.1998783 
        7985.     0.2155709 
        7990.     0.2333363 
        7995.     0.2531233 
        8000.     0.2760426 
        8005.     0.3003588 
        8010.     0.3280621 
        8015.     0.3580674 
        8020.     0.3901378 
        8025.     0.4241954 
        8030.     0.4601358 
        8035.     0.4971036 
        8040.     0.5359246 
        8045.     0.5734033 
        8050.     0.6103221 
        8055.     0.6474373 
        8060.     0.6812855 
        8065.     0.7140008 
        8070.     0.7444122 
        8075.     0.7717981 
        8080.     0.7965851 
        8085.     0.8201164 
        8090.     0.8395144 
        8095.     0.8563413 
        8100.     0.8702875 
        8105.     0.8802913 
        8110.     0.8872734 
        8115.     0.8914227 
        8120.     0.8942844 
        8125.     0.8947694 
        8130.     0.8948116 
        8135.     0.8943927 
        8140.     0.8935786 
        8145.      0.893611 
        8150.     0.8944288 
        8155.     0.8944415 
        8160.     0.8940865 
        8165.     0.8936858 
        8170.     0.8922045 
        8175.     0.8891515 
        8180.     0.8847767 
        8185.     0.8784878 
        8190.      0.870032 
        8195.     0.8595992 
        8200.     0.8492064 
        8205.     0.8376487 
        8210.      0.826151 
        8215.     0.8141735 
        8220.     0.8040923 
        8225.      0.794493 
        8230.      0.786305 
        8235.     0.7795506 
        8240.      0.775053 
        8245.      0.771506 
        8250.      0.769213 
        8255.      0.768152 
        8260.     0.7679285 
        8265.     0.7671041 
        8270.     0.7667266 
        8275.     0.7655813 
        8280.     0.7628269 
        8285.     0.7592643 
        8290.     0.7564085 
        8295.     0.7522089 
        8300.     0.7488322 
        8305.     0.7460525 
        8310.     0.7445332 
        8315.     0.7452511 
        8325.      0.753886 
        8330.     0.7605761 
        8335.     0.7694267 
        8340.     0.7778218 
        8345.     0.7861821 
        8350.     0.7927181 
        8355.     0.7971131 
        8360.     0.7972935 
        8365.     0.7948944 
        8370.     0.7890397 
        8375.      0.781596 
        8380.     0.7725331 
        8385.     0.7644038 
        8390.     0.7559622 
        8395.     0.7510357 
        8400.     0.7478197 
        8405.     0.7465039 
        8410.     0.7464175 
        8415.     0.7474062 
        8420.     0.7465892 
        8425.      0.743369 
        8430.     0.7361148 
        8435.     0.7238944 
        8440.     0.7064248 
        8445.     0.6855437 
        8450.     0.6614559 
        8455.     0.6361282 
        8460.     0.6111749 
        8465.      0.589475 
        8470.     0.5718566 
        8475.     0.5606247 
        8480.     0.5544287 
        8485.     0.5566195 
        8490.     0.5662685 
        8495.     0.5835612 
        8500.     0.6080399 
        8505.     0.6376704 
        8510.     0.6716101 
        8515.     0.7064658 
        8520.     0.7392949 
        8525.     0.7663087 
        8530.     0.7810642 
        8535.      0.785731 
        8540.      0.776825 
        8545.     0.7564596 
        8550.     0.7267154 
        8555.     0.6927374 
        8560.      0.657521 
        8565.     0.6247741 
        8570.     0.5966319 
        8575.     0.5741374 
        8580.     0.5577303 
        8585.     0.5504337 
        8590.     0.5486406 
        8595.     0.5537317 
        8600.     0.5651158 
        8605.     0.5827541 
        8610.     0.6054005 
        8615.     0.6318308 
        8620.      0.659871 
        8625.     0.6888489 
        8630.     0.7188762 
        8635.      0.745347 
        8640.     0.7684271 
        8645.     0.7901028 
        8650.     0.8042829 
        8655.     0.8173039 
        8660.     0.8256729 
        8665.     0.8305433 
        8670.     0.8361359 
        8675.     0.8411199 
        8680.      0.847401 
        8685.     0.8540781 
        8690.     0.8611023 
        8695.     0.8704461 
        8700.     0.8762934 
        8705.     0.8821264 
        8710.     0.8824458 
        8715.     0.8758208 
        8720.     0.8663366 
        8725.      0.850744 
        8730.      0.825197 
        8735.     0.7994679 
        8740.     0.7671469 
        8745.     0.7349968 
        8750.     0.6976849 
        8755.     0.6690657 
        8760.       0.64355 
        8765.     0.6188552 
        8770.     0.5972468 
        8775.     0.5790851 
        8780.     0.5655291 
        8785.     0.5517413 
        8790.      0.541363 
        8795.     0.5305426 
        8800.      0.517748 
        8805.     0.5064898 
        8810.     0.4940565 
        8815.     0.4802503 
        8820.     0.4659486 
        8825.     0.4510917 
        8830.     0.4339194 
        8835.     0.4171619 
        8840.     0.4041335 
        8845.     0.3918447 
        8850.     0.3821796 
        8855.     0.3752922 
        8860.     0.3702587 
        8865.     0.3689924 
        8870.     0.3712989 
        8875.     0.3778115 
        8880.     0.3874503 
        8885.     0.3998101 
        8890.     0.4156484 
        8895.     0.4345199 
        8900.     0.4531734 
        8905.      0.470412 
        8910.     0.4864328 
        8915.     0.4991546 
        8920.     0.5074108 
        8925.     0.5095593 
        8930.     0.5060632 
        8935.     0.4977411 
        8940.     0.4851405 
        8945.     0.4700836 
        8950.     0.4534193 
        8955.     0.4365772 
        8960.     0.4217645 
        8965.     0.4103618 
        8970.     0.4014015 
        8975.     0.3964054 
        8980.     0.3957918 
        8985.     0.3994805 
        8990.     0.4078628 
        8995.     0.4218036 
        9000.     0.4382673 
        9005.     0.4610683 
        9010.     0.4884782 
        9015.      0.520567 
        9020.     0.5567891 
        9025.     0.5936009 
        9030.     0.6317508 
        9035.     0.6700793 
        9040.     0.7045271 
        9045.      0.739001 
        9050.     0.7683561 
        9055.      0.790321 
        9060.     0.8068216 
        9065.     0.8186292 
        9070.     0.8248008 
        9075.     0.8288321 
        9080.     0.8301833 
        9085.     0.8302489 
        9090.     0.8306767 
        9095.     0.8313282 
        9100.     0.8334073 
        9105.     0.8369319 
        9110.     0.8410337 
        9115.     0.8466356 
        9120.     0.8523758 
        9125.     0.8585827 
        9130.     0.8634987 
        9135.     0.8684734 
        9140.     0.8727303 
        9145.     0.8762197 
        9150.     0.8779778 
        9155.     0.8791389 
        9160.     0.8790498 
        9165.     0.8787737 
        9170.     0.8781193 
        9175.     0.8775652 
        9180.     0.8768953 
        9185.     0.8761094 
        9190.     0.8760669 
        9195.     0.8748562 
        9200.     0.8740272 
        9205.     0.8723484 
        9210.     0.8691232 
        9215.     0.8650196 
        9220.     0.8595768 
        9225.     0.8528062 
        9230.      0.844444 
        9235.      0.834287 
        9240.     0.8229868 
        9245.     0.8107018 
        9250.      0.799752 
        9255.     0.7884884 
        9260.     0.7775826 
        9265.     0.7685283 
        9270.     0.7597016 
        9275.     0.7532255 
        9280.     0.7487729 
        9285.     0.7465141 
        9290.     0.7463414 
        9295.     0.7478513 
        9300.     0.7508052 
        9305.     0.7558882 
        9310.     0.7620748 
        9315.     0.7690356 
        9320.     0.7765931 
        9325.       0.78396 
        9330.     0.7915103 
        9335.      0.799474 
        9340.     0.8059923 
        9345.     0.8126104 
        9350.     0.8172401 
        9355.     0.8217002 
        9360.      0.825264 
        9365.     0.8285835 
        9370.     0.8311565 
        9375.     0.8330804 
        9380.     0.8347828 
        9385.     0.8359743 
        9390.     0.8378329 
        9395.     0.8388637 
        9400.     0.8397738 
        9405.     0.8405283 
        9410.     0.8411132 
        9415.      0.841579 
        9420.     0.8414738 
        9425.     0.8406418 
        9430.     0.8405438 
