# Keck LRIS narrowband filter NB9148 from Keck website
#      WAVELENGTH      THROUGHPUT
#       angstroms                
7821.15  2.207790E-5
7822.41  5.283644E-5
7823.68  2.212383E-5
7824.94  6.721258E-5
7826.21  6.956853E-5
7827.47  4.399943E-5
7828.74  4.201040E-5
7830.00  3.827037E-5
7831.27  3.709139E-5
7832.53  4.111473E-5
7833.80  5.474881E-5
7835.07  4.920216E-5
7836.33  9.878296E-5
7837.60  1.133139E-4
7838.86  6.301769E-5
7840.13  7.457794E-5
7841.39  6.825841E-5
7842.66  6.044010E-5
7843.92  6.133461E-5
7845.19  5.352167E-5
7846.45  6.034268E-5
7847.72  7.520353E-5
7848.98  4.989145E-5
7850.25  5.651197E-5
7851.51  4.473905E-5
7852.78  2.819315E-5
7854.04  4.137885E-5
7855.31  4.031979E-5
7856.57  6.714632E-5
7857.84  6.671611E-5
7859.11  2.409339E-5
7860.37  2.846198E-5
7861.64  5.291689E-5
7862.90  5.856088E-5
7864.17  3.402802E-5
7865.43  5.249957E-5
7866.70  3.918455E-5
7867.96  5.484301E-5
7869.23  2.564614E-5
7870.49  2.994373E-5
7871.76  2.609071E-5
7873.02  2.862818E-5
7874.29  6.118187E-5
7875.55  7.099739E-5
7876.82  6.049084E-5
7878.08  4.236375E-5
7879.35  2.795427E-5
7880.62  3.773970E-5
7881.88  4.065450E-5
7883.15  5.542749E-5
7884.41  4.440122E-5
7885.68  4.879558E-5
7886.94  8.543918E-5
7888.21  5.735731E-5
7889.47  6.536664E-5
7890.74  7.226377E-5
7892.00  8.158326E-5
7893.27  6.989481E-5
7894.53  8.708115E-5
7895.80  7.310457E-5
7897.06  6.293422E-5
7898.33  4.396273E-5
7899.59  4.538189E-5
7900.86  4.206559E-5
7902.13  1.935291E-5
7903.39  2.799820E-5
7904.66  3.711864E-5
7905.92  4.881715E-5
7907.19  5.618911E-5
7908.45  8.782145E-5
7909.72  7.268325E-5
7910.98  8.012716E-5
7912.25  8.583892E-5
7913.51  7.466164E-5
7914.78  5.581960E-5
7916.04  7.215849E-5
7917.31  7.097411E-5
7918.57  4.072449E-5
7919.84  6.700925E-5
7921.10  7.406158E-5
7922.37  5.620996E-5
7923.64  2.993012E-5
7924.90  6.922260E-5
7926.17  6.555444E-5
7927.43  5.364004E-5
7928.70  6.218498E-5
7929.96  6.833772E-5
7931.23  6.883574E-5
7932.49  4.729892E-5
7933.76  3.546958E-5
7935.02  2.970467E-5
7936.29  6.110546E-5
7937.55  4.205143E-5
7938.82  5.502324E-5
7940.08  3.502419E-5
7941.35  6.237056E-5
7942.61  5.869953E-5
7943.88  7.539678E-5
7945.15  7.548571E-5
7946.41  5.694514E-5
7947.68  5.178729E-5
7948.94  7.012652E-5
7950.21  5.676369E-5
7951.47  7.381271E-5
7952.74  4.204268E-5
7954.00  4.999570E-5
7955.27  2.823049E-5
7956.53  2.998564E-5
7957.80  4.320924E-5
7959.06  4.027218E-5
7960.33  3.984418E-5
7961.59  5.608203E-5
7962.86  7.246424E-5
7964.12  6.125648E-5
7965.39  4.393524E-5
7966.65  4.562252E-5
7967.92  4.424513E-5
7969.19  5.443889E-5
7970.45  7.058497E-5
7971.72  5.723780E-5
7972.98  7.232976E-5
7974.25  8.380129E-5
7975.51  3.911728E-5
7976.78  3.301816E-5
7978.04  3.949178E-5
7979.31  5.795504E-5
7980.57  6.009928E-5
7981.84  5.834565E-5
7983.10  4.697705E-5
7984.37  3.757525E-5
7985.63  4.086170E-5
7986.90  6.022532E-5
7988.16  7.478782E-5
7989.43  8.816224E-5
7990.70  8.849581E-5
7991.96  6.016125E-5
7993.23  7.733911E-5
7994.49  7.865514E-5
7995.76  6.051273E-5
7997.02  8.360767E-5
7998.29  1.008924E-4
7999.55  7.505150E-5
8000.82  5.359920E-5
8002.08  6.264011E-5
8003.35  7.285000E-5
8004.61  5.048786E-5
8005.88  3.728376E-5
8007.14  5.533741E-5
8008.41  8.632177E-5
8009.67  7.831687E-5
8010.94  7.127628E-5
8012.21  7.610531E-5
8013.47  6.284103E-5
8014.74  6.534459E-5
8016.00  4.868384E-5
8017.27  5.575865E-5
8018.53  8.708092E-5
8019.80  5.755228E-5
8021.06  5.752153E-5
8022.33  5.165864E-5
8023.59  6.426805E-5
8024.86  9.954238E-5
8026.12  5.373373E-5
8027.39  4.121900E-5
8028.65  2.545663E-5
8029.92  6.530274E-5
8031.18  7.221706E-5
8032.45  5.998823E-5
8033.72  8.316298E-5
8034.98  1.086504E-4
8036.25  6.786660E-5
8037.51  1.081752E-4
8038.78  7.136590E-5
8040.04  8.710433E-5
8041.31  7.225883E-5
8042.57  6.970867E-5
8043.84  1.000396E-4
8045.10  8.051711E-5
8046.37  6.027970E-5
8047.63  7.338474E-5
8048.90  9.908046E-5
8050.16  6.195949E-5
8051.43  5.581824E-5
8052.69  7.330857E-5
8053.96  6.081622E-5
8055.23  6.643296E-5
8056.49  8.321505E-5
8057.76  8.919736E-5
8059.02  8.644357E-5
8060.29  8.457321E-5
8061.55  8.926811E-5
8062.82  8.465158E-5
8064.08  7.957913E-5
8065.35  7.395819E-5
8066.61  8.207318E-5
8067.88  9.211565E-5
8069.14  8.224163E-5
8070.41  6.188700E-5
8071.67  7.986812E-5
8072.94  8.613030E-5
8074.20  6.368376E-5
8075.47  8.289381E-5
8076.73  8.346664E-5
8078.00  6.194624E-5
8079.27  7.114774E-5
8080.53  1.002969E-4
8081.80  1.023800E-4
8083.06  8.037434E-5
8084.33  7.683795E-5
8085.59  6.213097E-5
8086.86  6.601693E-5
8088.12  9.234035E-5
8089.39  1.020563E-4
8090.65  5.327901E-5
8091.92  4.358794E-5
8093.18  5.105563E-5
8094.45  7.291332E-5
8095.71  1.029547E-4
8096.98  7.430048E-5
8098.24  9.372941E-5
8099.51  7.584987E-5
8100.78  7.348431E-5
8102.04  7.015067E-5
8103.31  8.812556E-5
8104.57  7.990999E-5
8105.84  1.092290E-4
8107.10  1.004958E-4
8108.37  1.015927E-4
8109.63  9.021122E-5
8110.90  5.510238E-5
8112.16  6.317062E-5
8113.43  9.050551E-5
8114.69  1.199984E-4
8115.96  9.250162E-5
8117.22  1.208476E-4
8118.49  9.118239E-5
8119.75  7.608286E-5
8121.02  9.922708E-5
8122.29  9.522412E-5
8123.55  1.085298E-4
8124.82  9.930033E-5
8126.08  5.457762E-5
8127.35  1.024612E-4
8128.61  1.106941E-4
8129.88  8.193783E-5
8131.14  7.524082E-5
8132.41  9.529133E-5
8133.67  9.269348E-5
8134.94  1.041865E-4
8136.20  8.335990E-5
8137.47  1.026116E-4
8138.73  8.853558E-5
8140.00  8.586621E-5
8141.26  8.022579E-5
8142.53  8.592270E-5
8143.80  9.380827E-5
8145.06  1.035692E-4
8146.33  9.837803E-5
8147.59  9.531355E-5
8148.86  9.796728E-5
8150.12  8.350184E-5
8151.39  7.261897E-5
8152.65  7.750111E-5
8153.92  1.036398E-4
8155.18  9.298530E-5
8156.45  6.740476E-5
8157.71  9.576852E-5
8158.98  1.214699E-4
8160.24  1.298687E-4
8161.51  1.126837E-4
8162.77  8.625541E-5
8164.04  8.428268E-5
8165.31  9.739665E-5
8166.57  8.572290E-5
8167.84  6.266368E-5
8169.10  1.210139E-4
8170.37  1.003114E-4
8171.63  9.420347E-5
8172.90  1.172756E-4
8174.16  1.288329E-4
8175.43  9.424464E-5
8176.69  9.180402E-5
8177.96  9.578435E-5
8179.22  1.028621E-4
8180.49  1.155090E-4
8181.75  7.787452E-5
8183.02  1.151329E-4
8184.28  1.323761E-4
8185.55  1.003634E-4
8186.81  7.839701E-5
8188.08  1.005263E-4
8189.35  1.013340E-4
8190.61  1.196269E-4
8191.88  1.242963E-4
8193.14  9.012301E-5
8194.41  9.713119E-5
8195.67  8.788484E-5
8196.94  4.811023E-5
8198.20  1.000744E-4
8199.47  1.078993E-4
8200.73  1.012510E-4
8202.00  1.154097E-4
8203.26  1.339031E-4
8204.53  1.170708E-4
8205.79  9.221397E-5
8207.06  1.070361E-4
8208.32  1.245727E-4
8209.59  1.259354E-4
8210.86  1.241643E-4
8212.12  1.491138E-4
8213.39  1.057000E-4
8214.65  1.101564E-4
8215.92  1.221441E-4
8217.18  1.171600E-4
8218.45  1.051501E-4
8219.71  1.011884E-4
8220.98  8.968785E-5
8222.24  1.023791E-4
8223.51  1.195483E-4
8224.77  8.397030E-5
8226.04  1.258686E-4
8227.30  1.315793E-4
8228.57  1.230839E-4
8229.83  1.017256E-4
8231.10  1.192448E-4
8232.37  1.108183E-4
8233.63  9.444667E-5
8234.90  8.787226E-5
8236.16  1.010980E-4
8237.43  6.734039E-5
8238.69  1.010360E-4
8239.96  1.028621E-4
8241.22  1.232952E-4
8242.49  1.125557E-4
8243.75  8.975915E-5
8245.02  5.300262E-5
8246.28  1.435104E-4
8247.55  1.491902E-4
8248.81  9.092291E-5
8250.08  1.139074E-4
8251.34  1.815703E-4
8252.61  1.612398E-4
8253.88  1.256086E-4
8255.14  1.339726E-4
8256.41  1.665543E-4
8257.67  1.587924E-4
8258.94  1.513977E-4
8260.20  1.573257E-4
8261.47  1.226628E-4
8262.73  1.191693E-4
8264.00  1.227105E-4
8265.26  1.374766E-4
8266.53  1.382293E-4
8267.79  1.368895E-4
8269.06  1.265672E-4
8270.32  1.126544E-4
8271.59  1.088851E-4
8272.85  1.440001E-4
8274.12  1.666941E-4
8275.39  1.375745E-4
8276.65  1.290045E-4
8277.92  1.590626E-4
8279.18  1.736939E-4
8280.45  1.354726E-4
8281.71  1.467660E-4
8282.98  1.299929E-4
8284.24  1.410368E-4
8285.51  1.353134E-4
8286.77  1.467955E-4
8288.04  1.655058E-4
8289.30  1.386176E-4
8290.57  1.478944E-4
8291.83  1.982146E-4
8293.10  1.584397E-4
8294.36  1.482615E-4
8295.63  1.592928E-4
8296.89  1.273110E-4
8298.16  1.211890E-4
8299.43  1.983671E-4
8300.69  1.617120E-4
8301.96  1.262537E-4
8303.22  1.671445E-4
8304.49  1.657346E-4
8305.75  1.450337E-4
8307.02  1.613007E-4
8308.28  1.674453E-4
8309.55  1.437283E-4
8310.81  1.431335E-4
8312.08  1.846055E-4
8313.34  1.675087E-4
8314.61  1.646748E-4
8315.87  1.732317E-4
8317.14  1.500213E-4
8318.40  1.504956E-4
8319.67  1.698001E-4
8320.94  1.806067E-4
8322.20  1.630976E-4
8323.47  1.301037E-4
8324.73  1.843903E-4
8326.00  2.242218E-4
8327.26  2.039400E-4
8328.53  1.964352E-4
8329.79  1.807900E-4
8331.06  1.594573E-4
8332.32  1.783318E-4
8333.59  2.389845E-4
8334.85  2.114688E-4
8336.12  1.614177E-4
8337.38  1.458491E-4
8338.65  1.528768E-4
8339.91  1.677987E-4
8341.18  1.706983E-4
8342.45  1.777443E-4
8343.71  1.439696E-4
8344.98  1.510470E-4
8346.24  1.655714E-4
8347.51  2.169557E-4
8348.77  2.228803E-4
8350.04  1.947559E-4
8351.30  1.846925E-4
8352.57  1.936328E-4
8353.83  1.541714E-4
8355.10  1.690659E-4
8356.36  1.951763E-4
8357.63  1.504703E-4
8358.89  1.626473E-4
8360.16  2.093673E-4
8361.42  2.253694E-4
8362.69  2.393863E-4
8363.96  1.929940E-4
8365.22  1.711877E-4
8366.49  1.914320E-4
8367.75  1.954686E-4
8369.02  2.258557E-4
8370.28  2.549393E-4
8371.55  2.302582E-4
8372.81  2.065641E-4
8374.08  2.148955E-4
8375.34  2.500285E-4
8376.61  2.175305E-4
8377.87  2.095613E-4
8379.14  2.240921E-4
8380.40  2.666397E-4
8381.67  2.356739E-4
8382.93  2.040795E-4
8384.20  2.403130E-4
8385.47  2.258560E-4
8386.73  2.259700E-4
8388.00  2.085743E-4
8389.26  2.345510E-4
8390.53  2.899136E-4
8391.79  2.659103E-4
8393.06  2.233081E-4
8394.32  2.398945E-4
8395.59  2.482654E-4
8396.85  2.341867E-4
8398.12  2.538440E-4
8399.38  2.519775E-4
8400.65  2.376153E-4
8401.91  2.505585E-4
8403.18  2.481773E-4
8404.44  2.395563E-4
8405.71  2.168620E-4
8406.97  2.298890E-4
8408.24  2.504888E-4
8409.51  2.481888E-4
8410.77  2.927594E-4
8412.04  2.517562E-4
8413.30  2.511819E-4
8414.57  2.465185E-4
8415.83  2.294940E-4
8417.10  3.069141E-4
8418.36  3.004712E-4
8419.63  2.513088E-4
8420.89  2.921435E-4
8422.16  2.753675E-4
8423.42  3.183447E-4
8424.69  2.898347E-4
8425.95  2.906055E-4
8427.22  2.813665E-4
8428.48  2.718215E-4
8429.75  3.012314E-4
8431.02  3.003067E-4
8432.28  2.372222E-4
8433.55  2.410323E-4
8434.81  2.925017E-4
8436.08  3.079678E-4
8437.34  2.997004E-4
8438.61  2.762086E-4
8439.87  2.909374E-4
8441.14  2.824946E-4
8442.40  3.119216E-4
8443.67  2.915323E-4
8444.93  2.782421E-4
8446.20  2.673378E-4
8447.46  2.522485E-4
8448.73  3.102859E-4
8449.99  3.105792E-4
8451.26  3.376596E-4
8452.53  3.354707E-4
8453.79  3.157366E-4
8455.06  3.203560E-4
8456.32  3.671251E-4
8457.59  3.352652E-4
8458.85  2.938314E-4
8460.12  2.957602E-4
8461.38  2.978665E-4
8462.65  2.997042E-4
8463.91  3.438923E-4
8465.18  3.518802E-4
8466.44  3.269626E-4
8467.71  3.135042E-4
8468.97  3.450690E-4
8470.24  3.569552E-4
8471.50  3.572879E-4
8472.77  3.693643E-4
8474.04  3.425646E-4
8475.30  3.561757E-4
8476.57  3.547420E-4
8477.83  3.635922E-4
8479.10  3.964394E-4
8480.36  3.642362E-4
8481.63  3.704568E-4
8482.89  3.193608E-4
8484.16  3.470496E-4
8485.42  3.827456E-4
8486.69  3.779419E-4
8487.95  3.604711E-4
8489.22  3.887707E-4
8490.48  3.810810E-4
8491.75  4.084500E-4
8493.01  3.683742E-4
8494.28  3.605417E-4
8495.55  3.012141E-4
8496.81  3.851873E-4
8498.08  3.730701E-4
8499.34  3.582204E-4
8500.61  4.122718E-4
8501.87  4.110986E-4
8503.14  3.500994E-4
8504.40  3.372906E-4
8505.67  3.910461E-4
8506.93  4.335952E-4
8508.20  4.095864E-4
8509.46  4.184804E-4
8510.73  4.164414E-4
8511.99  4.283921E-4
8513.26  4.285600E-4
8514.52  4.263129E-4
8515.79  3.851019E-4
8517.05  4.570617E-4
8518.32  4.512028E-4
8519.59  4.070095E-4
8520.85  3.731136E-4
8522.12  3.878497E-4
8523.38  4.402911E-4
8524.65  4.273492E-4
8525.91  4.451715E-4
8527.18  4.723808E-4
8528.44  4.676870E-4
8529.71  4.328963E-4
8530.97  4.552828E-4
8532.24  4.597283E-4
8533.50  4.749387E-4
8534.77  4.268593E-4
8536.03  4.109617E-4
8537.30  4.695281E-4
8538.56  4.833823E-4
8539.83  4.864523E-4
8541.10  4.750798E-4
8542.36  5.169465E-4
8543.63  4.874347E-4
8544.89  5.049129E-4
8546.16  4.870031E-4
8547.42  5.067205E-4
8548.69  5.281353E-4
8549.95  5.042482E-4
8551.22  5.028903E-4
8552.48  5.426077E-4
8553.75  5.362793E-4
8555.01  5.523032E-4
8556.28  5.532126E-4
8557.54  5.442592E-4
8558.81  5.760994E-4
8560.07  5.260590E-4
8561.34  5.244690E-4
8562.61  5.512534E-4
8563.87  5.510616E-4
8565.14  6.216239E-4
8566.40  5.688932E-4
8567.67  5.588514E-4
8568.93  5.728846E-4
8570.20  5.949406E-4
8571.46  6.272311E-4
8572.73  6.238788E-4
8573.99  6.099753E-4
8575.26  5.930810E-4
8576.52  6.501988E-4
8577.79  6.555273E-4
8579.05  5.924759E-4
8580.32  5.873734E-4
8581.58  6.020265E-4
8582.85  6.178211E-4
8584.12  6.160879E-4
8585.38  6.808163E-4
8586.65  6.400583E-4
8587.91  6.464743E-4
8589.18  6.557601E-4
8590.44  6.675596E-4
8591.71  6.585589E-4
8592.97  6.509022E-4
8594.24  6.825193E-4
8595.50  6.904200E-4
8596.77  7.138220E-4
8598.03  7.304425E-4
8599.30  6.909822E-4
8600.56  7.392247E-4
8601.83  7.244574E-4
8603.09  6.724857E-4
8604.36  7.493075E-4
8605.63  7.301383E-4
8606.89  7.003006E-4
8608.16  7.272062E-4
8609.42  7.421627E-4
8610.69  8.148304E-4
8611.95  8.094064E-4
8613.22  8.210368E-4
8614.48  7.770582E-4
8615.75  8.114344E-4
8617.01  7.676797E-4
8618.28  8.010399E-4
8619.54  9.152306E-4
8620.81  8.399067E-4
8622.07  8.104155E-4
8623.34  9.086744E-4
8624.60  8.494976E-4
8625.87  8.647029E-4
8627.13  8.775261E-4
8628.40  9.076509E-4
8629.67  8.740214E-4
8630.93  9.167133E-4
8632.20  8.994399E-4
8633.46  8.869704E-4
8634.73  9.090923E-4
8635.99  9.610621E-4
8637.26  9.627917E-4
8638.52  9.590499E-4
8639.79  9.881124E-4
8641.05  9.901414E-4
8642.32  9.966898E-4
8643.58  0.001011352
8644.85  0.001000457
8646.11  9.537814E-4
8647.38  0.001027646
8648.64  0.001044761
8649.91  0.00108025
8651.18  0.001096502
8652.44  0.001082979
8653.71  0.001040834
8654.97  0.001098112
8656.24  0.001099592
8657.50  0.001169173
8658.77  0.001082826
8660.03  0.001108097
8661.30  0.001195152
8662.56  0.001172065
8663.83  0.001153917
8665.09  0.001136629
8666.36  0.001200077
8667.62  0.001242097
8668.89  0.001240024
8670.15  0.001197672
8671.42  0.001230048
8672.69  0.001257615
8673.95  0.001268623
8675.22  0.00130232
8676.48  0.001352287
8677.75  0.001323009
8679.01  0.001303288
8680.28  0.001330822
8681.54  0.001309122
8682.81  0.001334568
8684.07  0.001315229
8685.34  0.001335339
8686.60  0.001416999
8687.87  0.001452258
8689.13  0.001442341
8690.40  0.00149528
8691.66  0.001436693
8692.93  0.001433394
8694.20  0.001437387
8695.46  0.001566074
8696.73  0.001512262
8697.99  0.001538447
8699.26  0.001562738
8700.52  0.001552027
8701.79  0.001570825
8703.05  0.001608186
8704.32  0.001597124
8705.58  0.001586266
8706.85  0.00164731
8708.11  0.001680282
8709.38  0.0016924
8710.64  0.001688915
8711.91  0.001753713
8713.17  0.00171111
8714.44  0.001748943
8715.71  0.001732137
8716.97  0.001811767
8718.24  0.001814831
8719.50  0.001832539
8720.77  0.001853392
8722.03  0.00183968
8723.30  0.002008599
8724.56  0.0019527
8725.83  0.001891313
8727.09  0.001901245
8728.36  0.002022534
8729.62  0.002075423
8730.89  0.002041529
8732.15  0.002097502
8733.42  0.002052992
8734.68  0.002075414
8735.95  0.002096788
8737.21  0.002109708
8738.48  0.002128386
8739.75  0.002134694
8741.01  0.002200175
8742.28  0.002215825
8743.54  0.002285325
8744.81  0.002274582
8746.07  0.002372867
8747.34  0.00234141
8748.60  0.00229302
8749.87  0.002404257
8751.13  0.002458856
8752.40  0.002442452
8753.66  0.002539303
8754.93  0.002500933
8756.19  0.002640108
8757.46  0.002597733
8758.72  0.002582194
8759.99  0.002615322
8761.26  0.002704229
8762.52  0.002704701
8763.79  0.002689394
8765.05  0.002722591
8766.32  0.002803268
8767.58  0.002738544
8768.85  0.002779756
8770.11  0.002857155
8771.38  0.002889147
8772.64  0.003006596
8773.91  0.00288743
8775.17  0.003032554
8776.44  0.003021138
8777.70  0.003087963
8778.97  0.003119154
8780.23  0.003077165
8781.50  0.003199981
8782.77  0.003253453
8784.03  0.003218169
8785.30  0.003237259
8786.56  0.003303591
8787.83  0.003291128
8789.09  0.003422104
8790.36  0.003495909
8791.62  0.003540394
8792.89  0.003456929
8794.15  0.003565513
8795.42  0.003621518
8796.68  0.003716799
8797.95  0.003703923
8799.21  0.003719143
8800.48  0.003747616
8801.74  0.003733913
8803.01  0.003831487
8804.28  0.003901017
8805.54  0.003982627
8806.81  0.003979494
8808.07  0.00398599
8809.34  0.003997599
8810.60  0.004122334
8811.87  0.004131367
8813.13  0.004245101
8814.40  0.004326488
8815.66  0.00425063
8816.93  0.004255571
8818.19  0.004363198
8819.46  0.004418219
8820.72  0.004516617
8821.99  0.004496936
8823.25  0.004520677
8824.52  0.004645409
8825.79  0.004673591
8827.05  0.004693868
8828.32  0.00480514
8829.58  0.004877333
8830.85  0.004899574
8832.11  0.005098457
8833.38  0.005078553
8834.64  0.005159452
8835.91  0.005190224
8837.17  0.005273472
8838.44  0.005527488
8839.70  0.005517952
8840.97  0.005465383
8842.23  0.005524488
8843.50  0.00570395
8844.76  0.005771978
8846.03  0.005869051
8847.29  0.005876334
8848.56  0.00596394
8849.83  0.00605902
8851.09  0.006091683
8852.36  0.006135055
8853.62  0.006364472
8854.89  0.006357408
8856.15  0.00639804
8857.42  0.006423801
8858.68  0.006533806
8859.95  0.006651641
8861.21  0.006637998
8862.48  0.006855079
8863.74  0.007066478
8865.01  0.007096887
8866.27  0.007191957
8867.54  0.007371972
8868.80  0.007440534
8870.07  0.007487403
8871.34  0.007582739
8872.60  0.007799409
8873.87  0.00790057
8875.13  0.007917957
8876.40  0.008009754
8877.66  0.008102772
8878.93  0.008422532
8880.19  0.008592919
8881.46  0.008595368
8882.72  0.008602611
8883.99  0.008731011
8885.25  0.009100902
8886.52  0.009152381
8887.78  0.009144172
8889.05  0.00939882
8890.31  0.00962322
8891.58  0.009746391
8892.85  0.009829515
8894.11  0.009933992
8895.38  0.01012377
8896.64  0.01035676
8897.91  0.01053631
8899.17  0.01080434
8900.44  0.01092827
8901.70  0.01100819
8902.97  0.01116769
8904.23  0.01145384
8905.50  0.01172636
8906.76  0.01188036
8908.03  0.01202812
8909.29  0.01219737
8910.56  0.01248037
8911.82  0.01272057
8913.09  0.01284631
8914.36  0.013024
8915.62  0.01332673
8916.89  0.01379092
8918.15  0.01409693
8919.42  0.01419574
8920.68  0.01437797
8921.95  0.01468933
8923.21  0.01496796
8924.48  0.01513317
8925.74  0.01553744
8927.01  0.0157821
8928.27  0.01628283
8929.54  0.01676027
8930.80  0.01701738
8932.07  0.01722812
8933.33  0.01775201
8934.60  0.01820214
8935.87  0.01841195
8937.13  0.01867692
8938.40  0.01915889
8939.66  0.01966444
8940.93  0.02016437
8942.19  0.02078512
8943.46  0.02106691
8944.72  0.02138493
8945.99  0.02198651
8947.25  0.02274591
8948.52  0.02356479
8949.78  0.02392698
8951.05  0.02442847
8952.31  0.02528612
8953.58  0.02579291
8954.84  0.02678512
8956.11  0.02768125
8957.37  0.02829507
8958.64  0.02917916
8959.91  0.03041994
8961.17  0.03154192
8962.44  0.03255976
8963.70  0.03385857
8964.97  0.03488911
8966.23  0.03615074
8967.50  0.03751242
8968.76  0.03898332
8970.03  0.04048012
8971.29  0.04220207
8972.56  0.0438652
8973.82  0.04572351
8975.09  0.0478561
8976.35  0.04984546
8977.62  0.05194991
8978.88  0.05388069
8980.15  0.05642567
8981.42  0.05844165
8982.68  0.06094158
8983.95  0.06371149
8985.21  0.06579739
8986.48  0.06856087
8987.74  0.07166439
8989.01  0.07511216
8990.27  0.07872616
8991.54  0.08232707
8992.80  0.08578105
8994.07  0.08970232
8995.33  0.09413192
8996.60  0.09906062
8997.86  0.1038619
8999.13  0.1091706
9000.39  0.1145131
9001.66  0.1207212
9002.93  0.1273982
9004.19  0.1340293
9005.46  0.1417592
9006.72  0.1499385
9007.99  0.1589775
9009.25  0.1683522
9010.52  0.1781769
9011.78  0.1888034
9013.05  0.2002658
9014.31  0.2124328
9015.58  0.2252579
9016.84  0.2389044
9018.11  0.2530339
9019.37  0.2676445
9020.64  0.2834534
9021.90  0.2997967
9023.17  0.3160438
9024.44  0.3332546
9025.70  0.3507139
9026.97  0.3688711
